Data from 1.2bar_Subt2__0__17-08-39-497.txt Node

Date: Thu Jan 06 17:08:39 CET 2022
User: fsatto
Spectrometer: OFX01956
Trigger mode: 0
Integration Time (sec): 6.000000E-3
Scans to average: 10
Nonlinearity correction enabled: false
Boxcar width: 0
Storing dark spectrum: false
XAxis mode: Wavelengths
Number of Pixels in Spectrum: 2136
>>>>>Begin Spectral Data<<<<<
158.236	15.4
158.705	7.7
159.174	13.3
159.643	20.2
160.112	28.3
160.582	33.1
161.051	11.8
161.52	23
161.988	17.6
162.457	31.9
162.926	15.9
163.395	39.4
163.864	25.8
164.332	-0.9
164.801	17.7
165.269	25
165.738	26.4
166.206	7.8
166.675	35.9
167.143	18.1
167.612	21.9
168.08	13.7
168.548	17.5
169.016	24.1
169.484	33.1
169.952	39.2
170.42	28.9
170.888	35.2
171.356	9.1
171.824	11.6
172.292	21
172.759	22.3
173.227	2.8
173.695	20.5
174.162	31.2
174.63	35.8
175.097	26.2
175.565	33.5
176.032	30.9
176.499	21.6
176.967	19.6
177.434	16.9
177.901	23.1
178.368	26.7
178.835	27.5
179.302	42.8
179.769	29
180.236	13.2
180.703	24.7
181.17	32.1
181.637	27.3
182.103	18.7
182.57	10.2
183.036	22.5
183.503	35
183.97	5.9
184.436	22.3
184.902	13.7
185.369	32.7
185.835	20.2
186.301	36.8
186.767	11.8
187.234	22
187.7	30.9
188.166	15.7
188.632	17.4
189.098	30.6
189.563	32.9
190.029	7.2
190.495	27.5
190.961	34.2
191.426	28.8
191.892	30.9
192.358	6.1
192.823	13.3
193.289	10.6
193.754	17
194.219	8.9
194.685	33.4
195.15	16.8
195.615	24.9
196.08	24.7
196.545	19.9
197.01	1.5
197.475	26.7
197.94	18.8
198.405	18.1
198.87	0.8
199.335	30.4
199.8	7.8
200.264	54.3
200.729	54.3
201.193	45.8
201.658	50.4
202.122	41.3
202.587	25.9
203.051	55.6
203.516	72.2
203.98	71.6
204.444	63.4
204.908	56.8
205.372	93
205.836	127.1
206.3	91.9
206.764	105.5
207.228	109.1
207.692	93.6
208.156	132.2
208.62	149.4
209.083	154
209.547	179.3
210.011	198.3
210.474	212.3
210.938	240.4
211.401	262.8
211.864	305.7
212.328	334.2
212.791	377.3
213.254	405.5
213.717	420.9
214.181	489.1
214.644	561.1
215.107	603.5
215.57	648.6
216.033	758.6
216.495	895.8
216.958	1006.9
217.421	1102.7
217.884	1238
218.346	1378
218.809	1481.9
219.272	1509.7
219.734	1513
220.196	1538.3
220.659	1491.4
221.121	1538.3
221.584	1627
222.046	1748.7
222.508	1795
222.97	1822.8
223.432	1854.2
223.894	1996.9
224.356	2184.5
224.818	2279
225.28	2291.7
225.742	2386.9
226.204	2655.4
226.665	2898.3
227.127	2997.2
227.589	3017.2
228.05	3079.2
228.512	3216.9
228.973	3232.6
229.435	3167.8
229.896	3132.8
230.357	3495
230.818	4017.4
231.28	4379
231.741	4564.3
232.202	4232.2
232.663	3969.1
233.124	4049.2
233.585	4706.3
234.046	5304.2
234.507	5481.8
234.967	4814
235.428	4052.4
235.889	3713.5
236.349	4068.4
236.81	4561
237.271	4414.1
237.731	3705
238.191	3076.3
238.652	2963.6
239.112	3597.2
239.572	4523.7
240.033	4971.8
240.493	4408.1
240.953	3589.4
241.413	3576.4
241.873	4323.1
242.333	5108.7
242.793	5064.2
243.253	4263.5
243.712	3404.2
244.172	3416.1
244.632	4109.8
245.092	4925.1
245.551	4964.3
246.011	4104
246.47	3147.4
246.93	3054.6
247.389	3976.7
247.848	5156.7
248.308	5959.7
248.767	5888.1
249.226	5274.9
249.685	4894.9
250.144	5658.5
250.603	7445.6
251.062	9139.8
251.521	9249.5
251.98	8333.3
252.439	7535.3
252.897	7573.9
253.356	9069.7
253.815	10641.2
254.273	10863.7
254.732	10000.1
255.19	8566
255.649	7662.5
256.107	7869.8
256.566	8434.7
257.024	9128.7
257.482	8688.2
257.94	7701.6
258.398	7357.9
258.856	7208
259.315	7396.3
259.772	7737.8
260.23	7679.8
260.688	7016.6
261.146	6190.1
261.604	5647.3
262.062	5941.8
262.519	6750.9
262.977	7486.3
263.434	7236.5
263.892	6899.2
264.349	7119.9
264.807	7912.5
265.264	8799
265.721	9426.2
266.179	9434.7
266.636	8739.3
267.093	8349.5
267.55	8907.8
268.007	10213.3
268.464	11060.6
268.921	11302.5
269.378	10161.7
269.835	9283.5
270.291	9024.3
270.748	9140.5
271.205	9518.6
271.661	9397.6
272.118	8643.7
272.574	8132
273.031	7707.7
273.487	7302.3
273.944	7235
274.4	7608.9
274.856	7707.6
275.312	7341.8
275.768	6963.4
276.225	6926.7
276.681	7142.9
277.137	7217.8
277.593	7228.4
278.048	7227.5
278.504	7139.8
278.96	7008.9
279.416	6560
279.871	6339.3
280.327	6331.5
280.783	6784.9
281.238	7147.2
281.694	6871.5
282.149	6420.2
282.604	5998.2
283.06	5771
283.515	5673.4
283.97	5938.3
284.425	6080
284.88	5830.5
285.335	5495
285.79	4794
286.245	4381.5
286.7	4493.9
287.155	5024.5
287.61	5208.3
288.064	5350.8
288.519	5562.9
288.974	5572.5
289.428	5155.1
289.883	5030.4
290.337	5305.5
290.792	5708.9
291.246	6075.3
291.7	6332.7
292.155	6339.5
292.609	6246.9
293.063	6184.4
293.517	6452.6
293.971	7054.4
294.425	7485.3
294.879	7700.3
295.333	7536.2
295.787	7388.6
296.241	7336.2
296.694	7478.7
297.148	7794.6
297.602	8182.9
298.055	8344.8
298.509	7992.5
298.962	7421.6
299.416	7008.8
299.869	6893.8
300.322	6951.2
300.775	6957.8
301.229	6863
301.682	6705.5
302.135	6359.3
302.588	6057.7
303.041	5857.9
303.494	5750.8
303.947	5634.8
304.4	5445.2
304.852	5254.1
305.305	5020.8
305.758	4711.3
306.21	4328
306.663	4048.6
307.115	3856.3
307.568	3909
308.02	3811.2
308.473	3616.2
308.925	3424.6
309.377	3210.7
309.829	3104.6
310.282	2994.3
310.734	2998.9
311.186	3004.7
311.638	2934.5
312.09	2784.9
312.542	2732.2
312.993	2705.5
313.445	2575.9
313.897	2589.6
314.349	2461
314.8	2500.6
315.252	2444
315.703	2370.5
316.155	2313.4
316.606	2251.4
317.058	2193.4
317.509	2214.3
317.96	2198.9
318.411	2133.8
318.863	2168.8
319.314	2188.4
319.765	2135.4
320.216	2110.5
320.667	2000.7
321.117	1976
321.568	2032.7
322.019	2089.2
322.47	2028
322.921	1970.7
323.371	1878.4
323.822	1729.1
324.272	1601.7
324.723	1510.7
325.173	1472
325.623	1345.5
326.074	1318.1
326.524	1273.8
326.974	1410.9
327.424	1935.5
327.874	2252.7
328.325	1812.5
328.775	1303.1
329.224	1153.1
329.674	1140.6
330.124	1092.9
330.574	1068.7
331.024	980.1
331.473	910.5
331.923	851.9
332.373	797.7
332.822	739.5
333.272	673.9
333.721	649.5
334.17	627
334.62	621.1
335.069	582.6
335.518	543
335.967	541.7
336.416	496.9
336.865	447.4
337.314	441.5
337.763	387.5
338.212	384.7
338.661	389
339.11	348
339.558	319.5
340.007	327.8
340.456	322.9
340.904	332.2
341.353	307.6
341.801	287.6
342.25	279.2
342.698	266.1
343.146	256.2
343.595	201
344.043	242.6
344.491	206.3
344.939	186.4
345.387	177.3
345.835	158.9
346.283	173.9
346.731	155.8
347.179	126.2
347.626	142.9
348.074	127.1
348.522	126.8
348.969	112.7
349.417	66.8
349.865	123.9
350.312	113.6
350.759	104.2
351.207	91.9
351.654	70.5
352.101	66.3
352.548	86.9
352.996	69.9
353.443	94.1
353.89	71.8
354.337	61.4
354.784	57.3
355.231	78.1
355.677	61.9
356.124	45.4
356.571	60
357.018	56.5
357.464	56.8
357.911	75
358.357	44.1
358.804	48.9
359.25	72.7
359.696	38.9
360.143	29.2
360.589	41.2
361.035	30.9
361.481	57.6
361.927	33.3
362.373	44.5
362.819	58.8
363.265	17.4
363.711	23.7
364.157	34.8
364.603	10.4
365.048	39
365.494	30.8
365.94	41.5
366.385	41.1
366.831	29.6
367.276	12
367.722	36.5
368.167	12.6
368.612	19.1
369.057	26.2
369.503	21.4
369.948	5.7
370.393	38.9
370.838	11.4
371.283	41.3
371.728	29.4
372.173	-1.1
372.617	17.1
373.062	-14.3
373.507	18.9
373.951	18.3
374.396	31
374.841	12.8
375.285	25.9
375.729	9.8
376.174	3.1
376.618	35.7
377.062	15.3
377.507	21.8
377.951	14.8
378.395	46.7
378.839	14.8
379.283	25.1
379.727	28.2
380.171	22.8
380.615	25.4
381.059	20.3
381.502	22
381.946	20.2
382.39	37.7
382.833	23
383.277	13.2
383.72	28
384.164	31.7
384.607	10
385.05	32.7
385.494	17.7
385.937	13.8
386.38	9.3
386.823	48.2
387.266	41.1
387.709	11.5
388.152	34.8
388.595	3.5
389.038	5.4
389.481	18.2
389.923	12.2
390.366	24.1
390.809	29.1
391.251	17.9
391.694	30.4
392.136	21.4
392.579	1.4
393.021	2.5
393.463	23.7
393.906	-8.9
394.348	12.8
394.79	16.4
395.232	19.5
395.674	25.5
396.116	7.8
396.558	30
397	24.5
397.442	44.4
397.884	33
398.325	17.5
398.767	35.1
399.209	7.4
399.65	13.9
400.092	28
400.533	27.6
400.974	16.1
401.416	16.1
401.857	7.1
402.298	43.9
402.74	32.6
403.181	15.5
403.622	35.9
404.063	33.6
404.504	29.7
404.945	34.3
405.386	17.1
405.826	26
406.267	16.2
406.708	21.3
407.149	24
407.589	27
408.03	-4.8
408.47	3.9
408.911	13.2
409.351	4.6
409.791	19.8
410.232	8.9
410.672	13.8
411.112	15.2
411.552	17.1
411.992	29.6
412.432	36.9
412.872	21.5
413.312	34.5
413.752	14.9
414.192	17.5
414.632	33.3
415.071	2.6
415.511	29.4
415.951	17.1
416.39	18.2
416.83	31.4
417.269	26.1
417.708	9.2
418.148	20.9
418.587	19.1
419.026	15.7
419.465	8.4
419.904	52.1
420.344	35.2
420.783	17.8
421.221	25.9
421.66	9
422.099	32.1
422.538	22.3
422.977	26.5
423.415	16.1
423.854	21.3
424.293	17
424.731	11.9
425.17	35.1
425.608	14.9
426.046	41.1
426.485	6.3
426.923	29.1
427.361	38.8
427.799	26.5
428.237	15.2
428.675	28.8
429.113	23.1
429.551	22.2
429.989	17
430.427	14.4
430.865	15.3
431.303	14.4
431.74	16
432.178	26.2
432.615	35.3
433.053	13.8
433.49	32
433.928	19.7
434.365	20
434.802	23.7
435.24	44
435.677	24.4
436.114	10.3
436.551	33.1
436.988	17.2
437.425	5.7
437.862	13.4
438.299	14
438.736	27.2
439.172	1.4
439.609	18.3
440.046	11.5
440.482	29.2
440.919	34.7
441.355	17
441.792	26
442.228	18.2
442.665	10.1
443.101	11.7
443.537	49.6
443.973	32.5
444.409	38.1
444.845	28.2
445.281	22.9
445.717	29
446.153	26.1
446.589	29.8
447.025	23.4
447.461	29
447.896	23.8
448.332	28.9
448.768	31.5
449.203	38.9
449.639	16.6
450.074	9.8
450.509	33.5
450.945	33.2
451.38	27.1
451.815	23.8
452.25	27
452.685	17.7
453.12	36.6
453.555	45.3
453.99	14.1
454.425	54.5
454.86	29.3
455.295	21.9
455.73	26.9
456.164	-0.6
456.599	36.9
457.033	21.9
457.468	29.4
457.902	27.2
458.337	34.8
458.771	30.5
459.205	41.3
459.64	32.5
460.074	42.5
460.508	44.1
460.942	25.5
461.376	13.4
461.81	31.2
462.244	33.4
462.678	26.6
463.112	32.6
463.545	19.7
463.979	21.6
464.413	22.2
464.846	32.1
465.28	16.4
465.713	26.7
466.147	41
466.58	37.4
467.014	19.7
467.447	21.2
467.88	7.4
468.313	35.9
468.746	36.7
469.179	23.5
469.612	13.1
470.045	37.2
470.478	35.2
470.911	22.2
471.344	11.3
471.777	35.4
472.209	38.2
472.642	31.2
473.074	25.4
473.507	51.7
473.939	43.2
474.372	36.8
474.804	24.8
475.236	24.1
475.669	46.4
476.101	38.6
476.533	66.1
476.965	13.9
477.397	24.3
477.829	25.6
478.261	25.3
478.693	32.8
479.125	37.3
479.557	31.5
479.988	25.4
480.42	42.5
480.852	26
481.283	37
481.715	25
482.146	41.5
482.577	36.9
483.009	18.6
483.44	40.4
483.871	36.4
484.302	25.1
484.734	28.8
485.165	34.5
485.596	25.9
486.027	47.2
486.457	52.8
486.888	32.1
487.319	41.2
487.75	39.3
488.181	53.5
488.611	29.4
489.042	24.7
489.472	24.8
489.903	46.8
490.333	26
490.764	14.3
491.194	44.9
491.624	37.1
492.054	32.5
492.484	21.2
492.915	25.5
493.345	21.9
493.775	26
494.204	17.2
494.634	38.7
495.064	18.1
495.494	46.8
495.924	20.2
496.353	33.8
496.783	29.2
497.212	29
497.642	7.9
498.071	34.8
498.501	21.6
498.93	23.8
499.359	29.9
499.789	21.7
500.218	43.7
500.647	39.3
501.076	41.2
501.505	34
501.934	17
502.363	44.3
502.792	44.5
503.221	44.7
503.649	24.3
504.078	34.1
504.507	40.5
504.935	19.5
505.364	17.4
505.792	41.8
506.221	28.3
506.649	7.3
507.077	19.7
507.506	53.9
507.934	57.1
508.362	4.3
508.79	8.1
509.218	13.3
509.646	5.2
510.074	15.5
510.502	16.9
510.93	20.9
511.357	15.5
511.785	18.8
512.213	3.3
512.64	20.2
513.068	41.5
513.496	23.2
513.923	20
514.35	6.3
514.778	15.8
515.205	51.3
515.632	29.9
516.059	13.7
516.486	7.3
516.914	22.2
517.341	16.8
517.768	30.1
518.194	11.6
518.621	11.5
519.048	24.4
519.475	36.6
519.902	31.2
520.328	39.6
520.755	4.9
521.181	24.1
521.608	18.9
522.034	13
522.461	1.6
522.887	40.3
523.313	36.4
523.739	22
524.165	21.7
524.592	35.8
525.018	23.3
525.444	24
525.869	31.7
526.295	-4.7
526.721	8.5
527.147	15.5
527.573	30.9
527.998	39.4
528.424	0
528.849	4.4
529.275	13.4
529.7	19.8
530.126	34.3
530.551	19.7
530.976	23.9
531.402	25.6
531.827	11.4
532.252	20.4
532.677	4.4
533.102	30.3
533.527	29
533.952	5.6
534.377	13.4
534.801	23.3
535.226	15.9
535.651	39.6
536.076	30.1
536.5	17.6
536.925	33.2
537.349	4.1
537.773	33.8
538.198	23.3
538.622	34.1
539.046	36.1
539.471	23.9
539.895	29.5
540.319	28
540.743	8.8
541.167	1.2
541.591	3.6
542.015	19
542.438	17.7
542.862	44.9
543.286	10.7
543.71	15.5
544.133	25.4
544.557	23.2
544.98	7
545.404	31.5
545.827	18
546.25	-3.2
546.674	21.8
547.097	33.9
547.52	2.8
547.943	25.1
548.366	42.4
548.789	-4.6
549.212	14.5
549.635	34.6
550.058	43.6
550.481	39.9
550.903	51.5
551.326	29.6
551.749	17.5
552.171	15
552.594	35.4
553.016	26.8
553.438	40
553.861	27.3
554.283	25.3
554.705	28.4
555.128	19.4
555.55	1.3
555.972	52.2
556.394	3.5
556.816	34.9
557.238	55.8
557.659	23.3
558.081	0.1
558.503	29.8
558.925	34
559.346	0
559.768	23.1
560.189	40.4
560.611	20.4
561.032	31.4
561.454	39.5
561.875	17.1
562.296	25.9
562.718	-0.9
563.139	41.5
563.56	12.3
563.981	35.7
564.402	18.6
564.823	27
565.244	49.3
565.664	43.6
566.085	21.5
566.506	28.4
566.927	15.4
567.347	50.9
567.768	38.2
568.188	33.8
568.609	28.3
569.029	16.2
569.449	13.1
569.87	56.5
570.29	20
570.71	21.8
571.13	33.3
571.55	20.7
571.97	56.1
572.39	19.5
572.81	43.6
573.23	5.3
573.65	52.7
574.069	31.1
574.489	36.4
574.909	39
575.328	47.6
575.748	37.3
576.167	11.8
576.587	13.1
577.006	44.5
577.425	20.4
577.844	36.5
578.264	4.1
578.683	30.3
579.102	42.5
579.521	45.5
579.94	28.1
580.359	-4.7
580.778	18.6
581.196	22.6
581.615	48.3
582.034	47.2
582.452	0.7
582.871	40.8
583.29	28.2
583.708	24
584.126	24.1
584.545	14.5
584.963	31.8
585.381	26.6
585.8	28.4
586.218	38.1
586.636	5.8
587.054	44.3
587.472	18.3
587.89	-1.4
588.308	7.8
588.725	48.9
589.143	26.9
589.561	44.7
589.979	18.1
590.396	44.6
590.814	17.8
591.231	-1.6
591.649	31.7
592.066	24
592.483	7.3
592.901	15.3
593.318	22.6
593.735	11.6
594.152	-4.7
594.569	9.8
594.986	29.4
595.403	24.6
595.82	28
596.237	29.8
596.654	32.5
597.07	22.9
597.487	20.7
597.904	14.9
598.32	15.4
598.737	-18.5
599.153	-0.7
599.57	14
599.986	11.1
600.402	36.4
600.818	7.6
601.235	20.7
601.651	23.8
602.067	5.8
602.483	11.4
602.899	23.5
603.315	35.5
603.73	34.9
604.146	21.4
604.562	38.8
604.978	48.7
605.393	27.3
605.809	16.3
606.224	10.7
606.64	30.1
607.055	35.8
607.471	47.4
607.886	9
608.301	0.7
608.716	37.5
609.131	32.4
609.547	32.3
609.962	21.8
610.377	21.7
610.791	35.3
611.206	32.1
611.621	20.7
612.036	45.8
612.451	24.2
612.865	34.3
613.28	5.2
613.694	43
614.109	29.7
614.523	37.2
614.938	28.9
615.352	30.4
615.766	58.5
616.18	33.2
616.595	0.9
617.009	38.2
617.423	46.4
617.837	27.2
618.251	12.8
618.664	39.4
619.078	25.7
619.492	50.9
619.906	40.8
620.319	51.1
620.733	43
621.146	28.7
621.56	70.5
621.973	21.9
622.387	57.3
622.8	47.4
623.213	32.9
623.627	30.4
624.04	58.4
624.453	44
624.866	35.4
625.279	70.1
625.692	71.4
626.105	60
626.518	50.2
626.93	57.8
627.343	61
627.756	57.6
628.168	43.4
628.581	85.9
628.993	81.5
629.406	62.2
629.818	54.4
630.231	54.1
630.643	70.7
631.055	107.2
631.467	67.4
631.879	74.8
632.291	76.8
632.703	96.2
633.115	104.1
633.527	102
633.939	119
634.351	115.7
634.763	136.4
635.174	157.6
635.586	166.4
635.997	158.2
636.409	172.9
636.82	194.9
637.232	160.2
637.643	188.1
638.054	169.9
638.466	175.9
638.877	218.1
639.288	210.9
639.699	190.2
640.11	207.3
640.521	197.2
640.932	188
641.343	206.7
641.753	195.2
642.164	195.5
642.575	219.6
642.986	243.7
643.396	215.7
643.807	215.5
644.217	221.7
644.627	218.5
645.038	215.9
645.448	213.1
645.858	212.5
646.269	201.7
646.679	222.5
647.089	210.1
647.499	196.6
647.909	207.2
648.319	171
648.728	178
649.138	163.7
649.548	178.8
649.958	170.3
650.367	163.1
650.777	146.3
651.186	155.5
651.596	185.3
652.005	156.9
652.415	136.2
652.824	135.6
653.233	124.7
653.642	121.5
654.052	131.9
654.461	123.9
654.87	108.3
655.279	99
655.688	104.1
656.096	88.7
656.505	109.1
656.914	114.9
657.323	98.6
657.731	98.9
658.14	143.8
658.548	103.9
658.957	109.4
659.365	91.2
659.774	125.8
660.182	113.1
660.59	125.1
660.998	112.2
661.407	110
661.815	95
662.223	122
662.631	89.7
663.039	114.2
663.446	110.2
663.854	132.5
664.262	114.7
664.67	102.9
665.077	112.5
665.485	102.4
665.892	89.5
666.3	78.4
666.707	94
667.115	89.2
667.522	93.3
667.929	109.8
668.337	69
668.744	69.2
669.151	61.9
669.558	91.2
669.965	105.7
670.372	71.1
670.779	61.7
671.185	65.2
671.592	44.2
671.999	53.5
672.405	56.2
672.812	52.4
673.219	49.4
673.625	30.5
674.032	22.2
674.438	42.4
674.844	37.3
675.25	47.9
675.657	16.5
676.063	27.6
676.469	12.4
676.875	43.4
677.281	27.5
677.687	21.7
678.093	18.7
678.499	29
678.904	32.7
679.31	19.5
679.716	30.1
680.121	6.8
680.527	22.5
680.932	46.4
681.338	12.8
681.743	19.1
682.148	-3.3
682.554	29.2
682.959	11.8
683.364	8.9
683.769	6.2
684.174	10.1
684.579	27.8
684.984	10.3
685.389	24.2
685.794	19.5
686.199	37.3
686.603	9.8
687.008	28.6
687.413	16.2
687.817	16.7
688.222	-2.2
688.626	12.5
689.03	17.8
689.435	22
689.839	0.4
690.243	24.2
690.647	18.1
691.051	24.8
691.456	5
691.859	-5.9
692.263	15.7
692.667	-2.7
693.071	5.1
693.475	24.5
693.879	25.7
694.282	11.5
694.686	20
695.089	54.2
695.493	33.9
695.896	22.1
696.3	30
696.703	21.8
697.106	18.1
697.509	2.5
697.913	33.8
698.316	3.3
698.719	37.3
699.122	14.4
699.525	14.9
699.928	29.6
700.33	39.4
700.733	36.5
701.136	13
701.539	16.9
701.941	21.1
702.344	22
702.746	21.3
703.149	32.4
703.551	-0.8
703.953	14
704.356	6.5
704.758	53.9
705.16	35.5
705.562	8.9
705.964	18.2
706.366	35.2
706.768	13.3
707.17	-4.2
707.572	22.8
707.973	27.4
708.375	19.2
708.777	14.9
709.178	18.2
709.58	34.1
709.981	33
710.383	23.6
710.784	12.5
711.186	41.3
711.587	-0.7
711.988	7.3
712.389	27.2
712.79	28.4
713.191	21
713.592	44.7
713.993	0.5
714.394	15.7
714.795	28.8
715.196	2.3
715.596	4.1
715.997	11.2
716.398	-1.4
716.798	15.9
717.199	29.1
717.599	21.6
718	19.6
718.4	26.5
718.8	17
719.2	22.6
719.6	17.5
720.001	27.7
720.401	22.9
720.801	25.3
721.201	33.5
721.6	26.4
722	36.3
722.4	17.7
722.8	10.5
723.199	-3.5
723.599	17.3
723.998	4.2
724.398	55.7
724.797	15.1
725.197	-5.3
725.596	15.4
725.995	17.9
726.394	12.2
726.794	3.5
727.193	4.5
727.592	7.7
727.991	17.1
728.39	5.4
728.789	19.3
729.187	23.3
729.586	7.4
729.985	17.9
730.383	16
730.782	-1.9
731.181	16
731.579	35
731.977	13.1
732.376	14.1
732.774	24.5
733.172	7.2
733.571	3.4
733.969	13.3
734.367	-3.8
734.765	25.9
735.163	16.5
735.561	5.6
735.959	14.2
736.356	40.4
736.754	24.9
737.152	9.5
737.55	24.7
737.947	25
738.345	28.4
738.742	22.2
739.14	53.3
739.537	40.1
739.934	39.7
740.331	38.8
740.729	22.4
741.126	42.9
741.523	35.1
741.92	34.4
742.317	26.5
742.714	35.3
743.111	36.9
743.507	26.8
743.904	40.1
744.301	24
744.697	39.8
745.094	61.1
745.491	10.5
745.887	38.8
746.283	45.6
746.68	27.8
747.076	41.5
747.472	36.7
747.869	24.9
748.265	35.1
748.661	37.2
749.057	43.4
749.453	62.4
749.849	36.6
750.244	67.7
750.64	55.6
751.036	29.4
751.432	42.1
751.827	42.5
752.223	59.4
752.618	55.1
753.014	29.6
753.409	50.9
753.805	49.5
754.2	54.6
754.595	49.2
754.99	52.9
755.385	47
755.78	47.2
756.175	36.9
756.57	46
756.965	50.2
757.36	52.7
757.755	47.1
758.15	61
758.544	57.6
758.939	52.4
759.334	50.2
759.728	87.4
760.122	63.9
760.517	86.6
760.911	76.1
761.306	70.1
761.7	64.3
762.094	90.9
762.488	75.6
762.882	63.9
763.276	48.3
763.67	66.4
764.064	68.4
764.458	85.6
764.852	84.5
765.245	86.7
765.639	95.9
766.033	110.7
766.426	107.5
766.82	111.3
767.213	117.8
767.606	95.3
768	95.4
768.393	79.9
768.786	83.6
769.179	105.3
769.572	74.3
769.966	98.2
770.358	83.2
770.751	68.6
771.144	54.6
771.537	80.2
771.93	72.1
772.323	77.5
772.715	79.8
773.108	62
773.5	72
773.893	60
774.285	82.5
774.678	47.1
775.07	57.5
775.462	41.5
775.854	35.9
776.247	50
776.639	38
777.031	53.3
777.423	41.7
777.815	49.1
778.207	60.2
778.598	45.9
778.99	80.4
779.382	70.4
779.773	77.4
780.165	103.5
780.557	82.9
780.948	83.8
781.339	95.1
781.731	73.4
782.122	108.9
782.513	113.6
782.905	72
783.296	82.3
783.687	118.2
784.078	85.7
784.469	94.1
784.86	85.6
785.251	61.8
785.641	104.2
786.032	74.8
786.423	74.9
786.813	106.3
787.204	88.8
787.594	99.1
787.985	75.7
788.375	86.9
788.766	75.2
789.156	69.7
789.546	114.8
789.936	75.2
790.326	87.2
790.717	88.2
791.107	77.3
791.497	87.2
791.886	80.4
792.276	59.6
792.666	50.8
793.056	69.6
793.445	62.1
793.835	58.2
794.225	42.2
794.614	40.9
795.004	64.9
795.393	77.2
795.782	43
796.172	36.4
796.561	59.6
796.95	40.1
797.339	55.1
797.728	76.3
798.117	60.3
798.506	38.1
798.895	52.4
799.284	33.6
799.673	85.3
800.061	47.1
800.45	53.1
800.839	36.5
801.227	45.8
801.616	16.6
802.004	34.8
802.392	41.4
802.781	31.3
803.169	37
803.557	23.3
803.945	44.5
