Data from 0.20bar_Subt2__0__18-02-30-517.txt Node

Date: Thu Jan 06 18:02:30 CET 2022
User: fsatto
Spectrometer: OFX01956
Trigger mode: 0
Integration Time (sec): 2.000000E-3
Scans to average: 10
Nonlinearity correction enabled: false
Boxcar width: 0
Storing dark spectrum: false
XAxis mode: Wavelengths
Number of Pixels in Spectrum: 2136
>>>>>Begin Spectral Data<<<<<
158.236	25.1
158.705	13.1
159.174	17.8
159.643	12.1
160.112	22.6
160.582	24.8
161.051	27.1
161.52	17.2
161.988	24.2
162.457	22.1
162.926	19.8
163.395	19.2
163.864	12
164.332	25.2
164.801	9.3
165.269	15.5
165.738	16.9
166.206	19.1
166.675	21.2
167.143	14
167.612	10.6
168.08	17.4
168.548	17.4
169.016	19.5
169.484	18.7
169.952	18.6
170.42	23.3
170.888	28.5
171.356	18.7
171.824	13
172.292	12.7
172.759	20.5
173.227	21.4
173.695	24.1
174.162	22.6
174.63	22.1
175.097	14.1
175.565	10.5
176.032	14.9
176.499	17.1
176.967	22.5
177.434	15.5
177.901	24
178.368	28.6
178.835	19.6
179.302	20.8
179.769	17.6
180.236	17.1
180.703	16.4
181.17	18.4
181.637	21.7
182.103	17.2
182.57	14.8
183.036	21.1
183.503	23.1
183.97	18.8
184.436	16.7
184.902	17.9
185.369	20.3
185.835	19.9
186.301	18.2
186.767	11.5
187.234	11.4
187.7	16.1
188.166	13.8
188.632	12.4
189.098	13.2
189.563	18.1
190.029	15.3
190.495	18.9
190.961	21.9
191.426	6.5
191.892	23.3
192.358	16.3
192.823	13
193.289	19.2
193.754	22.7
194.219	18.1
194.685	23.7
195.15	20.4
195.615	17.9
196.08	22.9
196.545	20.2
197.01	19.8
197.475	21.8
197.94	12.3
198.405	22.6
198.87	11.9
199.335	25.1
199.8	20.3
200.264	97.7
200.729	96.4
201.193	91.3
201.658	97.3
202.122	100.6
202.587	110.3
203.051	95.9
203.516	108
203.98	116.4
204.444	113.7
204.908	111.5
205.372	129.7
205.836	145.4
206.3	133.8
206.764	142.4
207.228	134.4
207.692	147
208.156	156.6
208.62	174.7
209.083	187.4
209.547	185.3
210.011	216.6
210.474	241.2
210.938	277.7
211.401	291.5
211.864	361.1
212.328	414
212.791	477.5
213.254	570.6
213.717	678
214.181	781.2
214.644	916.8
215.107	1039.9
215.57	1146.5
216.033	1356.9
216.495	1662.9
216.958	1988.1
217.421	2104.1
217.884	2264
218.346	2532.6
218.809	2872.7
219.272	3281.3
219.734	3633.5
220.196	3975.6
220.659	4385.5
221.121	4812.1
221.584	5334.9
222.046	6022.3
222.508	6582.5
222.97	7049.6
223.432	7495.9
223.894	8218.5
224.356	9158.8
224.818	9949.4
225.28	10565.6
225.742	11325.6
226.204	12767.9
226.665	13985.5
227.127	14862.7
227.589	16079.5
228.05	17159.6
228.512	18181.1
228.973	18646
229.435	18042
229.896	17404.2
230.357	18167.5
230.818	19979.2
231.28	20609.1
231.741	20492.8
232.202	19451.1
232.663	18328.1
233.124	18903.5
233.585	20742.9
234.046	22439.9
234.507	22099.3
234.967	19827
235.428	18651.6
235.889	19617.4
236.349	22067.9
236.81	24871.3
237.271	25850.9
237.731	24589.5
238.191	22937.4
238.652	22936.3
239.112	24838.9
239.572	27948.7
240.033	29084.6
240.493	26211
240.953	22781.1
241.413	21491.4
241.873	22617.4
242.333	24241
242.793	23858.1
243.253	22084.7
243.712	21135.4
244.172	21141.4
244.632	21870.8
245.092	23503.5
245.551	24137.3
246.011	23557.6
246.47	22451.3
246.93	23490
247.389	26996
247.848	30187.6
248.308	31311.5
248.767	30773.9
249.226	29380.3
249.685	28845.7
250.144	29636.2
250.603	32403.3
251.062	34984.9
251.521	34956.2
251.98	33080.7
252.439	31223.2
252.897	30291.6
253.356	31510.3
253.815	33724.6
254.273	35360.8
254.732	35514.7
255.19	31580.9
255.649	27361.3
256.107	25597.5
256.566	26119.3
257.024	29096.6
257.482	30286.1
257.94	28866.2
258.398	29168.9
258.856	28993.4
259.315	28554.7
259.772	29215.2
260.23	29588.4
260.688	29246.5
261.146	27838.7
261.604	26163.2
262.062	25911.4
262.519	26765.8
262.977	27606.6
263.434	26567.6
263.892	25658.8
264.349	25901.2
264.807	26139.4
265.264	25356.3
265.721	24220.5
266.179	23805
266.636	22608.3
267.093	21400.3
267.55	21235.1
268.007	21932.7
268.464	22264
268.921	21940.5
269.378	20652.1
269.835	20129.3
270.291	20011.8
270.748	19815.1
271.205	19485
271.661	18681.4
272.118	17926.7
272.574	17799.2
273.031	18083.4
273.487	17874.6
273.944	17236.2
274.4	17064.4
274.856	17081.8
275.312	16318.9
275.768	15982.8
276.225	15976.8
276.681	15898.8
277.137	15254.8
277.593	14456.3
278.048	14064.8
278.504	13779.9
278.96	13257.8
279.416	12386.1
279.871	11641.8
280.327	11046.4
280.783	11015.1
281.238	10900.7
281.694	10333.9
282.149	9780.6
282.604	9682.2
283.06	9548.7
283.515	9192.7
283.97	9009
284.425	8643.7
284.88	8240.9
285.335	7881.1
285.79	7311.7
286.245	6746.4
286.7	6855.8
287.155	7201.3
287.61	7302
288.064	7324.6
288.519	7679.2
288.974	7823.5
289.428	7763.9
289.883	7853.2
290.337	8007.8
290.792	8301.1
291.246	8649.6
291.7	8745.3
292.155	8803.1
292.609	8831.7
293.063	8615.1
293.517	8628.3
293.971	8749.1
294.425	8943.2
294.879	9069.9
295.333	8905.9
295.787	8573.8
296.241	8374.6
296.694	8384.4
297.148	8704.3
297.602	8825.3
298.055	8681.2
298.509	8378.5
298.962	7737.6
299.416	7545.3
299.869	7637
300.322	7722.8
300.775	7574
301.229	7267.2
301.682	7121.9
302.135	6982
302.588	6823
303.041	6575.4
303.494	6330.8
303.947	5958.9
304.4	5725.8
304.852	5483.4
305.305	5204.2
305.758	4931
306.21	4574.1
306.663	4373.4
307.115	4287.1
307.568	4310
308.02	4235.5
308.473	4172.4
308.925	3898.5
309.377	3763.2
309.829	3707.2
310.282	3695.2
310.734	3626.1
311.186	3498.3
311.638	3313.4
312.09	3141.9
312.542	3012
312.993	2820.4
313.445	2707.8
313.897	2641.2
314.349	2522.4
314.8	2447.4
315.252	2370
315.703	2311.4
316.155	2241.3
316.606	2181.5
317.058	2093
317.509	2135
317.96	2062.1
318.411	1946.2
318.863	1928.9
319.314	1818.9
319.765	1705.7
320.216	1622.2
320.667	1510.5
321.117	1436.1
321.568	1407.3
322.019	1387.5
322.47	1325.4
322.921	1276.4
323.371	1219.3
323.822	1154.9
324.272	1052.9
324.723	998.5
325.173	952.8
325.623	884.6
326.074	826.4
326.524	794.5
326.974	916.6
327.424	1310.7
327.874	1616.6
328.325	1253.6
328.775	865.5
329.224	791.7
329.674	756
330.124	733.4
330.574	711.8
331.024	646.6
331.473	606.2
331.923	553.9
332.373	496.8
332.822	462.1
333.272	433.2
333.721	404.7
334.17	374.4
334.62	345.6
335.069	331.2
335.518	299.3
335.967	285.1
336.416	265
336.865	256.4
337.314	246.1
337.763	211.9
338.212	194.9
338.661	178.7
339.11	169.8
339.558	157
340.007	158.9
340.456	151.1
340.904	150.8
341.353	138.1
341.801	140.2
342.25	131.9
342.698	130.2
343.146	106.2
343.595	95.2
344.043	102.2
344.491	95.7
344.939	84.3
345.387	81.9
345.835	83.5
346.283	80.2
346.731	70.6
347.179	75.2
347.626	61.1
348.074	53.6
348.522	53.1
348.969	53.4
349.417	55.3
349.865	59.4
350.312	50.3
350.759	43.1
351.207	37
351.654	38.4
352.101	44.4
352.548	40.1
352.996	38.9
353.443	47.4
353.89	40.9
354.337	34.7
354.784	35.8
355.231	28
355.677	33.6
356.124	31.8
356.571	29.3
357.018	33.7
357.464	29.1
357.911	30.6
358.357	31.6
358.804	41.2
359.25	25.9
359.696	25.8
360.143	20.9
360.589	29.8
361.035	25.8
361.481	29.8
361.927	19.1
362.373	32.9
362.819	28.5
363.265	24.5
363.711	32
364.157	21.9
364.603	21.7
365.048	30.7
365.494	19.9
365.94	19.6
366.385	23.9
366.831	30.5
367.276	19.9
367.722	17.8
368.167	22.1
368.612	28.5
369.057	28.8
369.503	19.2
369.948	19
370.393	29
370.838	22.7
371.283	22.4
371.728	32.5
372.173	21.5
372.617	32.9
373.062	13.8
373.507	17.2
373.951	30.3
374.396	24.2
374.841	18.1
375.285	26.1
375.729	20.8
376.174	17.8
376.618	18.1
377.062	17.8
377.507	22.9
377.951	25.2
378.395	16.2
378.839	15.8
379.283	14.1
379.727	22.6
380.171	25.2
380.615	14.1
381.059	32.1
381.502	19.3
381.946	22.6
382.39	27.1
382.833	17.7
383.277	25.2
383.72	23.6
384.164	28
384.607	21
385.05	23.1
385.494	28.1
385.937	19.9
386.38	25.9
386.823	15.1
387.266	25.5
387.709	16.8
388.152	27.3
388.595	19
389.038	12.4
389.481	22
389.923	18
390.366	16.2
390.809	19.2
391.251	15.6
391.694	15.4
392.136	20.9
392.579	18.8
393.021	21.8
393.463	21.9
393.906	26
394.348	24
394.79	24.4
395.232	16.3
395.674	26.7
396.116	24.3
396.558	19.2
397	17
397.442	15.7
397.884	11.4
398.325	20
398.767	25.7
399.209	16.8
399.65	17.7
400.092	22.2
400.533	19.5
400.974	32.4
401.416	28.6
401.857	22.2
402.298	24.3
402.74	25.2
403.181	22.1
403.622	15.4
404.063	25.9
404.504	9.7
404.945	27.2
405.386	18.3
405.826	28.6
406.267	22.6
406.708	21.3
407.149	25.1
407.589	17.3
408.03	19.7
408.47	27.4
408.911	19.7
409.351	12.9
409.791	27.3
410.232	20
410.672	12.8
411.112	23.7
411.552	21.7
411.992	34.2
412.432	16.4
412.872	16.6
413.312	27.9
413.752	21.4
414.192	16.7
414.632	23.2
415.071	27.1
415.511	21.1
415.951	22.9
416.39	18.3
416.83	21.3
417.269	22.4
417.708	29.9
418.148	20.7
418.587	20.6
419.026	20.9
419.465	21.4
419.904	23.6
420.344	32.9
420.783	14.7
421.221	26.5
421.66	22.3
422.099	10.9
422.538	25.7
422.977	22.5
423.415	19.7
423.854	26.4
424.293	27.2
424.731	23.6
425.17	23.2
425.608	18
426.046	31.1
426.485	30.6
426.923	27.9
427.361	24
427.799	18.5
428.237	19.3
428.675	30.4
429.113	18.2
429.551	25.8
429.989	26.3
430.427	24.5
430.865	32.1
431.303	18.3
431.74	34
432.178	26.1
432.615	13.7
433.053	28
433.49	18.8
433.928	19.3
434.365	14.8
434.802	15.2
435.24	15.8
435.677	27.2
436.114	27.6
436.551	19.4
436.988	15.7
437.425	18
437.862	18.9
438.299	24.2
438.736	22.9
439.172	11.2
439.609	24.6
440.046	13.2
440.482	25.9
440.919	22.6
441.355	18.1
441.792	16.5
442.228	20
442.665	23.5
443.101	16.6
443.537	26.2
443.973	29.3
444.409	33.2
444.845	11.5
445.281	14.2
445.717	24
446.153	22.8
446.589	22
447.025	20.2
447.461	28
447.896	17
448.332	28.7
448.768	30.6
449.203	27.5
449.639	26.8
450.074	18.5
450.509	20.1
450.945	24.3
451.38	22.5
451.815	30.3
452.25	21.4
452.685	15.7
453.12	30.6
453.555	19.9
453.99	16.6
454.425	20.1
454.86	20.4
455.295	12.4
455.73	11.2
456.164	33.5
456.599	33.7
457.033	24.6
457.468	18.8
457.902	21.9
458.337	16
458.771	12.6
459.205	18.6
459.64	18.6
460.074	12.8
460.508	20.7
460.942	17.1
461.376	11.4
461.81	16.3
462.244	19
462.678	31.4
463.112	17.3
463.545	29.8
463.979	23.6
464.413	17.1
464.846	16.5
465.28	26.3
465.713	29.2
466.147	29.4
466.58	22.1
467.014	26.2
467.447	22.5
467.88	32.4
468.313	23.1
468.746	31
469.179	21.7
469.612	23.7
470.045	13.8
470.478	20.2
470.911	21
471.344	23.6
471.777	17.1
472.209	23.9
472.642	21.4
473.074	22.1
473.507	34.9
473.939	35.9
474.372	30.8
474.804	21.8
475.236	18.1
475.669	18.1
476.101	27.8
476.533	27.9
476.965	26.6
477.397	23.8
477.829	37.7
478.261	26.3
478.693	18.2
479.125	24.8
479.557	27.9
479.988	30.7
480.42	33.8
480.852	32.5
481.283	34.9
481.715	29
482.146	28.7
482.577	31.2
483.009	37.5
483.44	32.2
483.871	25.3
484.302	30.7
484.734	21.7
485.165	39.5
485.596	19.6
486.027	29.2
486.457	37.9
486.888	34.6
487.319	23.6
487.75	19.1
488.181	29.1
488.611	29
489.042	29.1
489.472	24.1
489.903	20.3
490.333	25.3
490.764	26
491.194	24.4
491.624	23.9
492.054	34.1
492.484	24.3
492.915	31.7
493.345	19.5
493.775	19.2
494.204	22.2
494.634	25.1
495.064	22.1
495.494	23.4
495.924	14.5
496.353	21.3
496.783	18.5
497.212	26.9
497.642	30.5
498.071	22.3
498.501	19.7
498.93	31.2
499.359	23.2
499.789	23.2
500.218	29.4
500.647	26.1
501.076	28.5
501.505	22.6
501.934	17.7
502.363	24.2
502.792	24.1
503.221	18.5
503.649	22.2
504.078	16.4
504.507	17.2
504.935	19.7
505.364	18.2
505.792	18.3
506.221	18.4
506.649	24.4
507.077	14
507.506	22
507.934	28.5
508.362	25
508.79	18.7
509.218	28.2
509.646	21.3
510.074	24.2
510.502	19.2
510.93	23.5
511.357	23.7
511.785	22.9
512.213	26
512.64	18.8
513.068	16.3
513.496	26.6
513.923	19.1
514.35	25.6
514.778	33
515.205	19.5
515.632	30.2
516.059	23.6
516.486	20
516.914	23.6
517.341	27.4
517.768	13.4
518.194	13.6
518.621	26.8
519.048	17.8
519.475	24.7
519.902	7.8
520.328	12.1
520.755	16.7
521.181	14.9
521.608	22.9
522.034	23.1
522.461	15.3
522.887	19.9
523.313	20.8
523.739	28.1
524.165	30
524.592	18.3
525.018	32.4
525.444	18.4
525.869	19.4
526.295	14.6
526.721	21.2
527.147	21.4
527.573	23.8
527.998	19.7
528.424	19.2
528.849	18.3
529.275	28.9
529.7	20.1
530.126	14.9
530.551	17.2
530.976	25
531.402	13
531.827	18.9
532.252	13.5
532.677	19.3
533.102	13.7
533.527	26.9
533.952	20.5
534.377	23.6
534.801	22.9
535.226	13.3
535.651	23.8
536.076	15.8
536.5	19.8
536.925	12.7
537.349	14.1
537.773	18.2
538.198	24.8
538.622	33.1
539.046	20.7
539.471	24.3
539.895	27.3
540.319	26.7
540.743	24.7
541.167	22.5
541.591	26
542.015	22.5
542.438	23
542.862	16.3
543.286	20.2
543.71	21.4
544.133	28.1
544.557	34.5
544.98	17.2
545.404	20.6
545.827	16.3
546.25	26.3
546.674	29
547.097	23.5
547.52	22.2
547.943	15.3
548.366	23.4
548.789	18.8
549.212	28
549.635	21.3
550.058	18
550.481	28.6
550.903	20.4
551.326	23.1
551.749	22.7
552.171	26
552.594	31.3
553.016	21.3
553.438	22.7
553.861	19.4
554.283	27
554.705	17
555.128	15.4
555.55	19
555.972	21.3
556.394	19
556.816	21.7
557.238	25.4
557.659	19
558.081	21.4
558.503	21.1
558.925	39.3
559.346	22.8
559.768	29.4
560.189	20.9
560.611	17.9
561.032	17.9
561.454	17.7
561.875	20.5
562.296	8.6
562.718	24.6
563.139	28.8
563.56	24.7
563.981	23.8
564.402	20.8
564.823	27.8
565.244	15
565.664	22.6
566.085	22.2
566.506	19.7
566.927	17.7
567.347	19.7
567.768	25.6
568.188	31.7
568.609	16.7
569.029	18.4
569.449	24.9
569.87	13.1
570.29	21.9
570.71	18.5
571.13	16.1
571.55	18.7
571.97	20.9
572.39	17.1
572.81	15
573.23	19.4
573.65	28.1
574.069	16.5
574.489	22.7
574.909	18.4
575.328	15.4
575.748	18.1
576.167	24.2
576.587	23.4
577.006	11.4
577.425	18.1
577.844	15.7
578.264	12.4
578.683	20.5
579.102	11.1
579.521	16.4
579.94	11.1
580.359	9.6
580.778	13.1
581.196	18.4
581.615	7.6
582.034	12.2
582.452	24.3
582.871	18.2
583.29	22
583.708	29.5
584.126	24.9
584.545	17.1
584.963	22.4
585.381	19
585.8	16.4
586.218	20.6
586.636	9.1
587.054	10.4
587.472	18.6
587.89	22.4
588.308	19.1
588.725	12.4
589.143	23.9
589.561	14.5
589.979	7.9
590.396	8.4
590.814	18.8
591.231	26.7
591.649	26.7
592.066	10.7
592.483	10.4
592.901	22.1
593.318	23.2
593.735	12.8
594.152	23.1
594.569	9.6
594.986	16.5
595.403	19.6
595.82	18.8
596.237	25.9
596.654	21.1
597.07	29.1
597.487	16.1
597.904	12.5
598.32	24.6
598.737	20.9
599.153	12.5
599.57	16.4
599.986	22.6
600.402	20.1
600.818	22.6
601.235	17.9
601.651	6.8
602.067	21.8
602.483	22.1
602.899	24.4
603.315	16.2
603.73	18.1
604.146	16
604.562	16.9
604.978	10.1
605.393	13
605.809	14.9
606.224	18.5
606.64	11.7
607.055	24.4
607.471	29.5
607.886	20.7
608.301	21.5
608.716	24.1
609.131	14.3
609.547	14
609.962	16.3
610.377	20.5
610.791	19.2
611.206	20.2
611.621	25.5
612.036	15.9
612.451	26.6
612.865	19.5
613.28	31.2
613.694	20.2
614.109	20.2
614.523	20.7
614.938	26.5
615.352	18.4
615.766	32.4
616.18	27.6
616.595	26.4
617.009	15.9
617.423	21.9
617.837	19.9
618.251	25.2
618.664	25.2
619.078	32.4
619.492	32.3
619.906	38.3
620.319	20.6
620.733	30.3
621.146	20.9
621.56	35.4
621.973	37.2
622.387	30.2
622.8	32.5
623.213	46
623.627	39.5
624.04	30.4
624.453	38.1
624.866	34.9
625.279	48.2
625.692	48.3
626.105	60.5
626.518	53.2
626.93	52.2
627.343	58.3
627.756	63.2
628.168	67.6
628.581	62.8
628.993	60.7
629.406	71.4
629.818	61.3
630.231	80.4
630.643	78.7
631.055	76.6
631.467	78.8
631.879	92.9
632.291	76.8
632.703	97.1
633.115	106.6
633.527	110.3
633.939	111.9
634.351	117.4
634.763	121.9
635.174	120
635.586	131
635.997	124.6
636.409	131
636.82	125.7
637.232	131.3
637.643	125.4
638.054	139.1
638.466	139
638.877	130.1
639.288	146.9
639.699	144.6
640.11	138.9
640.521	143.4
640.932	143.3
641.343	129.6
641.753	137.4
642.164	141.6
642.575	142.6
642.986	145.8
643.396	151.9
643.807	157.9
644.217	172.3
644.627	157
645.038	155.9
645.448	174.4
645.858	170.2
646.269	163.7
646.679	170.3
647.089	163.3
647.499	181.7
647.909	175.2
648.319	177.8
648.728	180.1
649.138	177.7
649.548	172.9
649.958	169.6
650.367	177.2
650.777	188.8
651.186	170.7
651.596	173.3
652.005	167.3
652.415	173.7
652.824	162.6
653.233	152.2
653.642	162.5
654.052	151.4
654.461	163.5
654.87	150.1
655.279	144.7
655.688	137.8
656.096	143.5
656.505	147.8
656.914	140
657.323	140.6
657.731	132.5
658.14	136.4
658.548	120.8
658.957	125
659.365	121.1
659.774	119
660.182	113.9
660.59	111.5
660.998	109.7
661.407	108.4
661.815	115.3
662.223	105.8
662.631	110.2
663.039	99.3
663.446	97.3
663.854	96.2
664.262	104.3
664.67	86.8
665.077	88.4
665.485	88.9
665.892	83.1
666.3	85.8
666.707	62.4
667.115	78.6
667.522	68.8
667.929	61.6
668.337	58.6
668.744	70.5
669.151	47
669.558	60.6
669.965	44.7
670.372	49.9
670.779	46
671.185	46
671.592	46.5
671.999	34.4
672.405	40.4
672.812	36.8
673.219	36.4
673.625	46.9
674.032	39.1
674.438	38.3
674.844	29.1
675.25	41.6
675.657	36.1
676.063	30.3
676.469	30.5
676.875	28.2
677.281	26.7
677.687	29.8
678.093	31.3
678.499	26.1
678.904	23.4
679.31	19.5
679.716	26.2
680.121	16.2
680.527	16.5
680.932	22.9
681.338	20.9
681.743	18.9
682.148	12.7
682.554	22.1
682.959	19.8
683.364	21.4
683.769	24.9
684.174	15.2
684.579	24.4
684.984	15.7
685.389	22.1
685.794	17.6
686.199	27.7
686.603	20.7
687.008	22.4
687.413	18.2
687.817	14.9
688.222	23.4
688.626	24
689.03	22.9
689.435	15.5
689.839	24.9
690.243	16.7
690.647	27.3
691.051	16.2
691.456	11.1
691.859	19.4
692.263	16
692.667	24.4
693.071	21.7
693.475	21.7
693.879	28.1
694.282	26.3
694.686	21.8
695.089	26.9
695.493	10.3
695.896	13.2
696.3	14
696.703	21.8
697.106	24.9
697.509	18.1
697.913	19.8
698.316	22.5
698.719	21.5
699.122	14.1
699.525	4.1
699.928	22.2
700.33	22.1
700.733	19.3
701.136	13.4
701.539	29.8
701.941	16.7
702.344	19.3
702.746	10.6
703.149	13.6
703.551	10.3
703.953	17.4
704.356	22.4
704.758	7.6
705.16	14.7
705.562	31.6
705.964	29.8
706.366	26
706.768	14.6
707.17	17.1
707.572	23.2
707.973	2.6
708.375	13
708.777	14.4
709.178	14.8
709.58	15.5
709.981	16.6
710.383	18.6
710.784	23.4
711.186	9
711.587	17.3
711.988	25.5
712.389	14.6
712.79	29
713.191	25.5
713.592	18.9
713.993	20.3
714.394	22.8
714.795	16
715.196	9.8
715.596	13.2
715.997	16.3
716.398	22.3
716.798	17.8
717.199	14.8
717.599	18.6
718	13.8
718.4	25.7
718.8	16
719.2	16.6
719.6	19.2
720.001	9.7
720.401	8
720.801	18.3
721.201	16.3
721.6	15.9
722	9
722.4	16.3
722.8	13.3
723.199	19.2
723.599	14.9
723.998	14.4
724.398	32.1
724.797	12.8
725.197	12.5
725.596	10.3
725.995	23
726.394	22.2
726.794	12.8
727.193	19.6
727.592	14.2
727.991	15
728.39	19
728.789	22.3
729.187	15.4
729.586	17
729.985	14.1
730.383	20.8
730.782	16.9
731.181	22.2
731.579	17.7
731.977	17.2
732.376	17.1
732.774	19.6
733.172	11.5
733.571	13.3
733.969	14.4
734.367	15
734.765	18.7
735.163	19.9
735.561	32.9
735.959	16.5
736.356	24.3
736.754	22.5
737.152	31.4
737.55	19.2
737.947	29.7
738.345	30.2
738.742	28.2
739.14	26
739.537	21.8
739.934	33.3
740.331	21.3
740.729	28.8
741.126	41.9
741.523	29
741.92	24
742.317	23.8
742.714	29.7
743.111	22
743.507	24.9
743.904	33.1
744.301	35
744.697	22.6
745.094	34.5
745.491	25.9
745.887	33.8
746.283	35.7
746.68	37.2
747.076	33
747.472	41.3
747.869	34.2
748.265	47.2
748.661	42.6
749.057	40.7
749.453	43.8
749.849	39.5
750.244	40.2
750.64	46.7
751.036	42.9
751.432	48.6
751.827	53.4
752.223	50.6
752.618	37.1
753.014	37.2
753.409	50.1
753.805	45.5
754.2	43.1
754.595	42.8
754.99	48.5
755.385	44.2
755.78	46.1
756.175	39.8
756.57	46.4
756.965	52.7
757.36	39.4
757.755	42.6
758.15	52.9
758.544	60.8
758.939	62.7
759.334	76.3
759.728	78.1
760.122	83.7
760.517	73.8
760.911	91.7
761.306	87.9
761.7	77.4
762.094	72.2
762.488	78.5
762.882	82.8
763.276	75
763.67	67.7
764.064	80.5
764.458	81.2
764.852	81
765.245	85.9
765.639	85.5
766.033	92
766.426	107
766.82	107.9
767.213	95
767.606	99.3
768	97.7
768.393	96.8
768.786	97.4
769.179	102.9
769.572	99.6
769.966	91.4
770.358	82.6
770.751	77.2
771.144	75.5
771.537	75.9
771.93	73.8
772.323	64
772.715	71.3
773.108	69.3
773.5	62.7
773.893	63.4
774.285	61.2
774.678	81.3
775.07	63.8
775.462	55.3
775.854	49.6
776.247	45.8
776.639	67.4
777.031	46.8
777.423	46.1
777.815	48.6
778.207	54.3
778.598	42.9
778.99	55.3
779.382	63.5
779.773	76.8
780.165	80.1
780.557	103.7
780.948	107.5
781.339	114.3
781.731	126
782.122	130.7
782.513	124.6
782.905	123.3
783.296	125
783.687	121.3
784.078	113.3
784.469	94.6
784.86	92.6
785.251	104.3
785.641	109.3
786.032	94.1
786.423	100.1
786.813	111.6
787.204	98
787.594	101.5
787.985	94
788.375	88.4
788.766	83.9
789.156	72.9
789.546	58.1
789.936	65.6
790.326	64.3
790.717	65.6
791.107	64.9
791.497	49.1
791.886	51.8
792.276	63.3
792.666	48.2
793.056	46.7
793.445	42.7
793.835	43.3
794.225	37.4
794.614	49.6
795.004	38.6
795.393	37.3
795.782	38.2
796.172	41.1
796.561	56.6
796.95	46.8
797.339	36.8
797.728	47.1
