Data from 0.25bar_Subt2__1__18-03-08-762.txt Node

Date: Thu Jan 06 18:03:08 CET 2022
User: fsatto
Spectrometer: OFX01956
Trigger mode: 0
Integration Time (sec): 2.000000E-3
Scans to average: 10
Nonlinearity correction enabled: false
Boxcar width: 0
Storing dark spectrum: false
XAxis mode: Wavelengths
Number of Pixels in Spectrum: 2136
>>>>>Begin Spectral Data<<<<<
158.236	16.6
158.705	8.8
159.174	15.9
159.643	3.7
160.112	14.5
160.582	17.6
161.051	15.7
161.52	14.7
161.988	11.1
162.457	16.2
162.926	12.8
163.395	14.9
163.864	9
164.332	17.9
164.801	9.1
165.269	14.3
165.738	10.9
166.206	17.8
166.675	19.1
167.143	8.9
167.612	14.9
168.08	17.2
168.548	11.1
169.016	18.3
169.484	9.6
169.952	17.9
170.42	16.5
170.888	17.2
171.356	16
171.824	19
172.292	14.1
172.759	14.5
173.227	21.2
173.695	17.3
174.162	20.2
174.63	13.9
175.097	5.3
175.565	14.1
176.032	11.1
176.499	15.7
176.967	15.8
177.434	16.3
177.901	19.9
178.368	25.7
178.835	19.6
179.302	20.9
179.769	19.2
180.236	20.5
180.703	12.3
181.17	19.2
181.637	14.1
182.103	21.8
182.57	18.8
183.036	15.5
183.503	25.2
183.97	15.8
184.436	22.2
184.902	19.1
185.369	16.9
185.835	18.3
186.301	19.9
186.767	8.4
187.234	12.7
187.7	10.3
188.166	12
188.632	17
189.098	17.1
189.563	15.6
190.029	14
190.495	10.5
190.961	12.4
191.426	11.6
191.892	11.9
192.358	17
192.823	10.9
193.289	18.6
193.754	17.6
194.219	15.7
194.685	20.4
195.15	23.1
195.615	9.8
196.08	19.9
196.545	21.1
197.01	15.9
197.475	19.2
197.94	13
198.405	18
198.87	16.8
199.335	18.6
199.8	11
200.264	102.6
200.729	95.3
201.193	95.5
201.658	99.1
202.122	114.5
202.587	111.1
203.051	108.7
203.516	111.4
203.98	116.4
204.444	124.8
204.908	128.4
205.372	140.5
205.836	156
206.3	156.4
206.764	153.2
207.228	133.2
207.692	156.3
208.156	173.7
208.62	192.7
209.083	200
209.547	217.2
210.011	263.6
210.474	292.4
210.938	342.4
211.401	396.3
211.864	472.4
212.328	527.7
212.791	610.2
213.254	756.1
213.717	870.6
214.181	1009.7
214.644	1163.1
215.107	1295
215.57	1421.2
216.033	1665.3
216.495	2012.8
216.958	2372.8
217.421	2478
217.884	2618.8
218.346	2911.1
218.809	3240.1
219.272	3607
219.734	4042.6
220.196	4366.2
220.659	4773
221.121	5225.5
221.584	5678.4
222.046	6363.3
222.508	6975.8
222.97	7447.3
223.432	7818.2
223.894	8449.6
224.356	9354.4
224.818	10186.5
225.28	10944.4
225.742	11727.1
226.204	13345.7
226.665	14446
227.127	15091.9
227.589	16042.8
228.05	17153.8
228.512	18321.3
228.973	18545.9
229.435	17600.1
229.896	16736.9
230.357	17516.9
230.818	19373.7
231.28	20231.2
231.741	20068.3
232.202	19228.9
232.663	18148.8
233.124	18624.2
233.585	20660.4
234.046	22567.9
234.507	22560
234.967	20723.7
235.428	19890.6
235.889	20792.5
236.349	23459.2
236.81	26707.5
237.271	27888.6
237.731	27313
238.191	25780.7
238.652	25697.5
239.112	27756
239.572	30812.5
240.033	31716.9
240.493	28592.2
240.953	25369.3
241.413	24275.9
241.873	25365.5
242.333	26977.6
242.793	26274.6
243.253	24373.1
243.712	23223.5
244.172	23379.7
244.632	24452.9
245.092	26667.5
245.551	27369.6
246.011	26594.9
246.47	25262.3
246.93	26462.4
247.389	30276.6
247.848	33870.3
248.308	34796.8
248.767	33943.2
249.226	32333.8
249.685	31715.8
250.144	32531.5
250.603	35607.2
251.062	37628.8
251.521	37020.6
251.98	34571.5
252.439	32443.9
252.897	31555.8
253.356	32847.4
253.815	34859.4
254.273	36155.6
254.732	35648.3
255.19	31378.6
255.649	27262.5
256.107	25843.1
256.566	26639.9
257.024	29152
257.482	29785.7
257.94	28119.1
258.398	28023.8
258.856	27908.3
259.315	28031.5
259.772	28766.6
260.23	29141.8
260.688	28565.6
261.146	26453.9
261.604	24932.8
262.062	24751.9
262.519	25891.8
262.977	26649.5
263.434	25776.2
263.892	24905.6
264.349	25096.5
264.807	25533.8
265.264	24795.9
265.721	24017.9
266.179	23828.6
266.636	22703.9
267.093	21374.9
267.55	21257.9
268.007	22129.8
268.464	22700.8
268.921	22362.9
269.378	21094.3
269.835	20502.7
270.291	20551.6
270.748	20391.2
271.205	20050.8
271.661	19351.2
272.118	18579.6
272.574	18301.9
273.031	18424.1
273.487	18273.3
273.944	17665.4
274.4	17659.2
274.856	17486.9
275.312	16771
275.768	16377.9
276.225	16083.9
276.681	15974.8
277.137	15414.1
277.593	14756.2
278.048	14354.5
278.504	14024.9
278.96	13483.8
279.416	12654.7
279.871	11795
280.327	11263.5
280.783	11206.9
281.238	11149.3
281.694	10641.1
282.149	10217.7
282.604	10101.2
283.06	9940.7
283.515	9526.3
283.97	9247.1
284.425	8920.7
284.88	8491.6
285.335	8166.2
285.79	7508.5
286.245	6906.9
286.7	7044.9
287.155	7441.5
287.61	7448.4
288.064	7447.1
288.519	7795.2
288.974	7806.8
289.428	7680
289.883	7692
290.337	7875.5
290.792	8149
291.246	8538.1
291.7	8584
292.155	8595.2
292.609	8584.2
293.063	8426.3
293.517	8393.8
293.971	8613.2
294.425	8815
294.879	8944.6
295.333	8854.3
295.787	8621.6
296.241	8356
296.694	8511.4
297.148	8805.2
297.602	9035.5
298.055	9014.1
298.509	8736
298.962	8225
299.416	8133.1
299.869	8198.8
300.322	8181.8
300.775	8118
301.229	7899.5
301.682	7770.3
302.135	7678.3
302.588	7458.6
303.041	7287
303.494	6967.3
303.947	6579.2
304.4	6333.9
304.852	6065.7
305.305	5827
305.758	5504.5
306.21	5125.1
306.663	4911.5
307.115	4838.7
307.568	4886
308.02	4889.7
308.473	4771.9
308.925	4494.8
309.377	4309.1
309.829	4256.7
310.282	4184.2
310.734	4103.6
311.186	3924.7
311.638	3740.6
312.09	3602.9
312.542	3383.4
312.993	3142.7
313.445	3031.9
313.897	2957.1
314.349	2836.9
314.8	2742.8
315.252	2657.9
315.703	2620.3
316.155	2537.5
316.606	2505.3
317.058	2404.5
317.509	2373.9
317.96	2320.9
318.411	2185.8
318.863	2146.9
319.314	2083.3
319.765	1950.7
320.216	1823.7
320.667	1729.4
321.117	1628.5
321.568	1607.4
322.019	1569.7
322.47	1499.3
322.921	1450.7
323.371	1362.7
323.822	1291.2
324.272	1199.8
324.723	1134.8
325.173	1047.6
325.623	975.1
326.074	928.7
326.524	899.6
326.974	1033.6
327.424	1485.2
327.874	1791.2
328.325	1396.1
328.775	961.5
329.224	907.7
329.674	856.4
330.124	831.6
330.574	783
331.024	733.8
331.473	688.1
331.923	636.5
332.373	585.5
332.822	528.2
333.272	490.6
333.721	465.7
334.17	427.5
334.62	401.3
335.069	378.7
335.518	347.3
335.967	338.3
336.416	323.5
336.865	306.2
337.314	287.1
337.763	248.9
338.212	231.2
338.661	213.5
339.11	203.2
339.558	183.8
340.007	193.5
340.456	179.8
340.904	188.1
341.353	161.7
341.801	157.9
342.25	160.5
342.698	147.8
343.146	137.3
343.595	124.6
344.043	115.6
344.491	105.8
344.939	91.9
345.387	93.4
345.835	94.6
346.283	98.1
346.731	76.8
347.179	84.5
347.626	71.1
348.074	61.3
348.522	73.2
348.969	57.2
349.417	70.1
349.865	58.7
350.312	54
350.759	54.7
351.207	42.5
351.654	40.9
352.101	52.7
352.548	42.3
352.996	37.1
353.443	36
353.89	48.5
354.337	42.7
354.784	44
355.231	26.9
355.677	37.5
356.124	29.8
356.571	24.5
357.018	33.7
357.464	28.3
357.911	30.9
358.357	24.3
358.804	43.3
359.25	31.6
359.696	29.2
360.143	18.3
360.589	26.1
361.035	26.4
361.481	20.5
361.927	22.5
362.373	32.2
362.819	26.7
363.265	17.1
363.711	17.1
364.157	18.2
364.603	16.1
365.048	25.3
365.494	31.5
365.94	17
366.385	15
366.831	23.9
367.276	25
367.722	18.6
368.167	22.6
368.612	17.5
369.057	24.9
369.503	21.8
369.948	25.1
370.393	25.3
370.838	16
371.283	17.8
371.728	29.1
372.173	19.4
372.617	29.6
373.062	17.3
373.507	13.8
373.951	22.7
374.396	17.2
374.841	21.4
375.285	22.2
375.729	19.2
376.174	13.1
376.618	20.7
377.062	10.8
377.507	12.8
377.951	23.5
378.395	13.7
378.839	18.5
379.283	15.7
379.727	22.1
380.171	17.8
380.615	17.2
381.059	23.6
381.502	18.8
381.946	17.4
382.39	18.8
382.833	18.2
383.277	18.6
383.72	21.5
384.164	27.9
384.607	36
385.05	18.7
385.494	25.8
385.937	20.6
386.38	20.9
386.823	27.4
387.266	22.9
387.709	20.9
388.152	22.9
388.595	19.9
389.038	6.8
389.481	17.7
389.923	17.9
390.366	11.9
390.809	17.5
391.251	28.8
391.694	12.8
392.136	18.5
392.579	23
393.021	18.7
393.463	25.7
393.906	25.2
394.348	21
394.79	24.1
395.232	24.3
395.674	25.7
396.116	23.5
396.558	17.2
397	24.6
397.442	21.7
397.884	18.7
398.325	10
398.767	27
399.209	11.7
399.65	21.8
400.092	19.6
400.533	20.2
400.974	25.5
401.416	21.8
401.857	13
402.298	24.8
402.74	13.6
403.181	15.6
403.622	20.3
404.063	20.3
404.504	16.4
404.945	16.2
405.386	13.9
405.826	27.3
406.267	18.6
406.708	25.6
407.149	17.4
407.589	27.1
408.03	21
408.47	25.8
408.911	25.6
409.351	20.3
409.791	23
410.232	20.3
410.672	16.5
411.112	13.7
411.552	18.2
411.992	33.3
412.432	22.8
412.872	21.8
413.312	12.9
413.752	15.2
414.192	13
414.632	27.8
415.071	19
415.511	14.9
415.951	13.9
416.39	17.4
416.83	17.5
417.269	18.7
417.708	22.2
418.148	18
418.587	16.6
419.026	13.5
419.465	20.4
419.904	17.5
420.344	24.7
420.783	19.5
421.221	13.7
421.66	24.9
422.099	13.3
422.538	21.8
422.977	15.5
423.415	11.5
423.854	22.9
424.293	25.5
424.731	16.7
425.17	19.6
425.608	13
426.046	28.1
426.485	15.7
426.923	18.7
427.361	20.7
427.799	21.7
428.237	12.7
428.675	24.8
429.113	17.5
429.551	15.4
429.989	16.3
430.427	20.1
430.865	25.5
431.303	22.6
431.74	28
432.178	30.3
432.615	12
433.053	25.2
433.49	8.5
433.928	20.2
434.365	12.9
434.802	16.2
435.24	15.5
435.677	19.5
436.114	21.7
436.551	10.6
436.988	16.9
437.425	19.8
437.862	17.6
438.299	24.1
438.736	21.8
439.172	10.6
439.609	13.2
440.046	11.1
440.482	17.4
440.919	11.5
441.355	12.1
441.792	21.6
442.228	14.5
442.665	15
443.101	15.1
443.537	18.2
443.973	13.8
444.409	15.7
444.845	13.1
445.281	16.4
445.717	20.3
446.153	25.8
446.589	10.2
447.025	10.4
447.461	24
447.896	21.3
448.332	21
448.768	17.9
449.203	19.1
449.639	22.9
450.074	13.3
450.509	14.5
450.945	29.2
451.38	11.6
451.815	20.5
452.25	22.1
452.685	9.3
453.12	28.8
453.555	0.8
453.99	22.1
454.425	14.6
454.86	13.1
455.295	11
455.73	22
456.164	29.3
456.599	24.3
457.033	18.3
457.468	22.1
457.902	14.3
458.337	13.9
458.771	8.3
459.205	15.8
459.64	21.6
460.074	10.3
460.508	21.4
460.942	17.2
461.376	3.4
461.81	18
462.244	20.6
462.678	20.2
463.112	22.1
463.545	12
463.979	11.8
464.413	21.5
464.846	20.3
465.28	25.3
465.713	19.6
466.147	21.1
466.58	16
467.014	27
467.447	28.7
467.88	33.8
468.313	19.2
468.746	34.8
469.179	21
469.612	21.3
470.045	14.5
470.478	16.2
470.911	21.7
471.344	15.4
471.777	18.3
472.209	20.6
472.642	17.3
473.074	23.1
473.507	33.2
473.939	29.3
474.372	25.1
474.804	21
475.236	23.6
475.669	25.3
476.101	31.2
476.533	28.7
476.965	26.6
477.397	26.9
477.829	27.1
478.261	24.8
478.693	19
479.125	25.1
479.557	28.9
479.988	35.8
480.42	27.7
480.852	32.9
481.283	36.2
481.715	30.6
482.146	33.7
482.577	27.5
483.009	40.4
483.44	35.2
483.871	35.6
484.302	26.8
484.734	33.9
485.165	37.2
485.596	27.7
486.027	39.4
486.457	22.3
486.888	31.1
487.319	21.6
487.75	18.6
488.181	25.7
488.611	28.2
489.042	20.3
489.472	31.7
489.903	23.4
490.333	21.3
490.764	19.2
491.194	27.4
491.624	19.1
492.054	23
492.484	30.6
492.915	32.5
493.345	25.2
493.775	20.4
494.204	24.1
494.634	15.3
495.064	22
495.494	21.5
495.924	13.6
496.353	22.2
496.783	20.6
497.212	26.4
497.642	23.1
498.071	26.9
498.501	21.8
498.93	25.1
499.359	18.6
499.789	14.1
500.218	22.1
500.647	14.5
501.076	21
501.505	22.6
501.934	26.2
502.363	18.7
502.792	22.9
503.221	20.5
503.649	21.8
504.078	17.8
504.507	16
504.935	15.6
505.364	17.3
505.792	17.9
506.221	15.8
506.649	17.7
507.077	16.1
507.506	19.8
507.934	24.7
508.362	24.2
508.79	15.8
509.218	27.3
509.646	19.3
510.074	27
510.502	24
510.93	14.1
511.357	31.8
511.785	14.9
512.213	20.8
512.64	16.3
513.068	22.3
513.496	17.2
513.923	24.7
514.35	16.6
514.778	24
515.205	16.1
515.632	23.8
516.059	17.3
516.486	23.8
516.914	22.1
517.341	20.5
517.768	18.8
518.194	14
518.621	22.5
519.048	18.8
519.475	25.9
519.902	14.1
520.328	10.9
520.755	19.1
521.181	11.7
521.608	20.4
522.034	18.9
522.461	19.2
522.887	18.2
523.313	19.6
523.739	20
524.165	26.2
524.592	18.1
525.018	26.7
525.444	18.1
525.869	18.5
526.295	18
526.721	23
527.147	23.1
527.573	25.1
527.998	15.9
528.424	12.9
528.849	29.5
529.275	14
529.7	21
530.126	17.9
530.551	7.7
530.976	20.4
531.402	8.7
531.827	20.7
532.252	22.7
532.677	20.2
533.102	13.3
533.527	22.2
533.952	23.1
534.377	20
534.801	15.3
535.226	21.6
535.651	18.5
536.076	19.5
536.5	28
536.925	1.6
537.349	14.9
537.773	12
538.198	21.3
538.622	36.7
539.046	20.8
539.471	28
539.895	19.1
540.319	17.9
540.743	17.9
541.167	16.1
541.591	23.7
542.015	24.8
542.438	21.2
542.862	14.3
543.286	19.3
543.71	16.7
544.133	20.4
544.557	23.8
544.98	20.6
545.404	23.4
545.827	17.1
546.25	26.4
546.674	34.6
547.097	18.4
547.52	25.6
547.943	18.3
548.366	26.8
548.789	23.1
549.212	23.6
549.635	20.9
550.058	16.4
550.481	21.8
550.903	30.7
551.326	22.8
551.749	24.1
552.171	24.4
552.594	31.9
553.016	23.3
553.438	20.6
553.861	16.8
554.283	16.7
554.705	18.1
555.128	21.5
555.55	30.9
555.972	23.9
556.394	18.1
556.816	16.1
557.238	16.5
557.659	16.9
558.081	20.8
558.503	25.1
558.925	27.9
559.346	12.6
559.768	16.5
560.189	23.3
560.611	16
561.032	16.8
561.454	17.7
561.875	22.6
562.296	11.4
562.718	14.6
563.139	21.9
563.56	22.2
563.981	24.4
564.402	19.9
564.823	19.8
565.244	19.9
565.664	22.9
566.085	16.2
566.506	12.1
566.927	14.7
567.347	32.1
567.768	27.2
568.188	20.7
568.609	19.4
569.029	13.2
569.449	19
569.87	13.7
570.29	14.2
570.71	14.6
571.13	11.8
571.55	16.6
571.97	20.5
572.39	18.8
572.81	16.9
573.23	16.6
573.65	17.1
574.069	16.3
574.489	18.8
574.909	11.9
575.328	3.2
575.748	20.4
576.167	18.7
576.587	15.6
577.006	18.4
577.425	17.6
577.844	15.7
578.264	12.3
578.683	16.2
579.102	12.1
579.521	11.8
579.94	14.4
580.359	12.4
580.778	9.7
581.196	13.5
581.615	6.1
582.034	14.1
582.452	19.2
582.871	22.6
583.29	21.7
583.708	25.4
584.126	18.4
584.545	15.8
584.963	24.1
585.381	20.2
585.8	9.8
586.218	18.2
586.636	3.4
587.054	3.4
587.472	22.5
587.89	11.3
588.308	18.1
588.725	9.5
589.143	22.8
589.561	16.4
589.979	11.9
590.396	3.3
590.814	13.8
591.231	25.1
591.649	13.9
592.066	16.2
592.483	7.6
592.901	15.2
593.318	17.8
593.735	12.9
594.152	17.6
594.569	13.4
594.986	22.1
595.403	15.5
595.82	13.3
596.237	9.1
596.654	23.5
597.07	17.2
597.487	14.6
597.904	7.4
598.32	22.4
598.737	14.1
599.153	6.9
599.57	14.9
599.986	15.4
600.402	22.7
600.818	18.3
601.235	8
601.651	4.7
602.067	15.7
602.483	6.7
602.899	15
603.315	13.3
603.73	7.1
604.146	17
604.562	12.7
604.978	1.7
605.393	13.8
605.809	6.8
606.224	17.3
606.64	6.7
607.055	27
607.471	17
607.886	15.4
608.301	14.5
608.716	18.4
609.131	17.4
609.547	6.5
609.962	20
610.377	19.3
610.791	13.9
611.206	17.6
611.621	24.7
612.036	14.1
612.451	24.2
612.865	16.1
613.28	23.6
613.694	20.5
614.109	16.4
614.523	20.7
614.938	14.5
615.352	22.1
615.766	31
616.18	28.4
616.595	29.8
617.009	17.6
617.423	18.3
617.837	20.3
618.251	29.4
618.664	24.4
619.078	28.9
619.492	29.4
619.906	35.3
620.319	25.5
620.733	25.1
621.146	19.5
621.56	32.1
621.973	26
622.387	21
622.8	28.2
623.213	31.9
623.627	37.6
624.04	32.9
624.453	34.8
624.866	31.2
625.279	39.6
625.692	48.6
626.105	46.6
626.518	54
626.93	45.5
627.343	56
627.756	62.3
628.168	62.4
628.581	70.6
628.993	60.5
629.406	75.4
629.818	66
630.231	72.6
630.643	79.8
631.055	72.1
631.467	76.2
631.879	88.4
632.291	83.1
632.703	90.3
633.115	102.7
633.527	115.1
633.939	111.8
634.351	113.9
634.763	120.8
635.174	134.8
635.586	124.7
635.997	129.2
636.409	134.8
636.82	136.1
637.232	141.1
637.643	139
638.054	135.7
638.466	140.5
638.877	134.6
639.288	149.8
639.699	139.1
640.11	145.9
640.521	147.2
640.932	153
641.343	142.1
641.753	151.9
642.164	138.2
642.575	143.9
642.986	150.9
643.396	155.9
643.807	154.1
644.217	168
644.627	151.7
645.038	153.8
645.448	178.4
645.858	173
646.269	170.4
646.679	182.5
647.089	177.4
647.499	175.7
647.909	177.7
648.319	172.8
648.728	183.5
649.138	171.5
649.548	175.4
649.958	176
650.367	172.9
650.777	181.6
651.186	171.5
651.596	174.8
652.005	172.1
652.415	171.1
652.824	164.4
653.233	163.4
653.642	165.4
654.052	163.1
654.461	155.5
654.87	142.9
655.279	142.9
655.688	137.5
656.096	140.5
656.505	134.9
656.914	139.9
657.323	132.2
657.731	131.9
658.14	142
658.548	128.4
658.957	118.6
659.365	111.5
659.774	125
660.182	118.6
660.59	116.7
660.998	113.3
661.407	110.1
661.815	116.1
662.223	101.9
662.631	112.2
663.039	104.9
663.446	109.8
663.854	103
664.262	99.2
664.67	88.3
665.077	87
665.485	93.7
665.892	81.4
666.3	71.8
666.707	69.1
667.115	71.3
667.522	66.9
667.929	63.9
668.337	70.1
668.744	53.5
669.151	45.1
669.558	69.2
669.965	46.5
670.372	55.1
670.779	51.7
671.185	51
671.592	42.2
671.999	33.7
672.405	37.6
672.812	30.9
673.219	34.8
673.625	49.6
674.032	43
674.438	30.6
674.844	27
675.25	29.4
675.657	37.6
676.063	31.3
676.469	24.9
676.875	21.8
677.281	29.8
677.687	27.9
678.093	31.2
678.499	24.7
678.904	20.1
679.31	15.7
679.716	18.8
680.121	10.4
680.527	20.8
680.932	23.6
681.338	17
681.743	12.9
682.148	16.9
682.554	13.4
682.959	18.6
683.364	14.5
683.769	27.1
684.174	22.3
684.579	27
684.984	14.5
685.389	17.4
685.794	11
686.199	13.8
686.603	26.7
687.008	20.1
687.413	14.4
687.817	5.7
688.222	20.9
688.626	20.4
689.03	12.8
689.435	13.3
689.839	27.1
690.243	17.9
690.647	23
691.051	10.8
691.456	6.8
691.859	25.7
692.263	13.1
692.667	21.7
693.071	14.9
693.475	15.9
693.879	18.4
694.282	15.2
694.686	16.5
695.089	19.5
695.493	8.2
695.896	15.8
696.3	8.6
696.703	15.1
697.106	26.1
697.509	15.7
697.913	16.8
698.316	11
698.719	15.3
699.122	6.9
699.525	15
699.928	17
700.33	17.1
700.733	11.9
701.136	9.5
701.539	20.3
701.941	9.9
702.344	22.3
702.746	10.1
703.149	15.3
703.551	6.1
703.953	11.8
704.356	19.3
704.758	8.1
705.16	10.1
705.562	27.6
705.964	23
706.366	28.3
706.768	19.8
707.17	11.6
707.572	14.9
707.973	0.1
708.375	8
708.777	7.1
709.178	20.3
709.58	9.7
709.981	15
710.383	18.5
710.784	21.7
711.186	17.1
711.587	14
711.988	13.3
712.389	16.3
712.79	21.4
713.191	30.1
713.592	7.2
713.993	16.9
714.394	25.3
714.795	14.6
715.196	12.2
715.596	10
715.997	11.3
716.398	14
716.798	12.2
717.199	7.7
717.599	9.8
718	14.3
718.4	20
718.8	17.9
719.2	15.3
719.6	15.9
720.001	12.9
720.401	11
720.801	16.7
721.201	12.3
721.6	5.4
722	12
722.4	8.6
722.8	15.7
723.199	13.1
723.599	10.7
723.998	14.6
724.398	20.7
724.797	14.5
725.197	9.1
725.596	11.7
725.995	13.2
726.394	18.4
726.794	9.2
727.193	20.3
727.592	12.3
727.991	11.5
728.39	14.2
728.789	19.3
729.187	18.1
729.586	10.1
729.985	10.6
730.383	20.1
730.782	20.8
731.181	15.4
731.579	15.5
731.977	15.5
732.376	16.3
732.774	16.1
733.172	17.8
733.571	13.7
733.969	15.3
734.367	8
734.765	21
735.163	13.1
735.561	18.3
735.959	22
736.356	25.2
736.754	23.2
737.152	26.8
737.55	19.5
737.947	22.6
738.345	27.3
738.742	22.4
739.14	22.7
739.537	18.8
739.934	23.5
740.331	18.3
740.729	21.3
741.126	25.8
741.523	29.5
741.92	23.9
742.317	28.1
742.714	27.7
743.111	13.4
743.507	15.2
743.904	25.1
744.301	34.2
744.697	25.6
745.094	27.5
745.491	13.8
745.887	26.5
746.283	31.4
746.68	31.6
747.076	30.4
747.472	41
747.869	33.4
748.265	42.6
748.661	34.1
749.057	41.1
749.453	30.3
749.849	38.6
750.244	36.3
750.64	37.3
751.036	49.8
751.432	41.9
751.827	31.7
752.223	42.1
752.618	38
753.014	35.9
753.409	45.3
753.805	35
754.2	28.9
754.595	40.1
754.99	44.3
755.385	37.2
755.78	38
756.175	36.9
756.57	36.2
756.965	43.7
757.36	27.5
757.755	39.4
758.15	45.9
758.544	53.8
758.939	51.6
759.334	62.1
759.728	65.8
760.122	75.3
760.517	72.9
760.911	77.5
761.306	74.4
761.7	75.1
762.094	74.7
762.488	69.6
762.882	70
763.276	69.2
763.67	68.3
764.064	71.7
764.458	77.7
764.852	76.4
765.245	74.4
765.639	77.5
766.033	82.1
766.426	95
766.82	85.9
767.213	84.8
767.606	102
768	91.2
768.393	89.4
768.786	82.3
769.179	88.7
769.572	80.8
769.966	76.6
770.358	76.6
770.751	68.6
771.144	76.5
771.537	67.9
771.93	67
772.323	64.5
772.715	70.1
773.108	67.2
773.5	68.3
773.893	54.7
774.285	62
774.678	66.9
775.07	64.8
775.462	63.5
775.854	50.5
776.247	51.2
776.639	66.3
777.031	51.2
777.423	51
777.815	53.2
778.207	61.7
778.598	49.9
778.99	51.9
779.382	58.4
779.773	87.1
780.165	79.3
780.557	110.1
780.948	107.5
781.339	121.5
781.731	122.5
782.122	125.9
782.513	113.5
782.905	117
783.296	126.6
783.687	130.9
784.078	111.2
784.469	104.7
784.86	105.9
785.251	110.2
785.641	95.5
786.032	96.6
786.423	93.2
786.813	102.5
787.204	96.1
787.594	99.4
787.985	94.6
788.375	87.5
788.766	72.9
789.156	65.6
789.546	61.6
789.936	66.1
790.326	55
790.717	60.2
791.107	59.5
791.497	49.8
791.886	50.9
792.276	53.5
792.666	37
793.056	42.1
793.445	39.8
793.835	39.6
794.225	26.5
794.614	47.6
795.004	33.5
795.393	30.3
795.782	38.6
796.172	37.1
796.561	48.8
796.95	42.6
797.339	35.5
797.728	39.3
798.117	32.1
798.506	37.5
798.895	34.3
